## SPECTRUM TYPE:
LCE

## DATE:
18/11/2025

## COMMENTS:
xime muestra

## NUMBER OF SPECTRUM:
1

## ELLIPSOMETRIC CONFIGURATION:
0.00 ø :Modulator
+45.00 øAnalyser

## UNIT:
nm

## SPOT SIZE:



# SPECTRUM:
1

# CAPTION:


# START TIME:
14:32:35

# END TIME:
14:32:35

# THETA ANGLE:
0.00 ø

# INCIDENCE ANGLE:
65.00 ø

# ACCUMULATION NUMBER:
19

# ELLIPSOMETRIC CONFIGURATION:
0.00 ø :Modulator
+45.00 øAnalyser

# INTEGRATION TIME:
12 ms

# FIRST POINT:
997.66 nm

# LAST POINT:
439.96 nm

# INCREMENT:
0.00 nm

# NUMBER OF POINTS:
200

# DATA:
nm Psi Delta Ic Is Reflectance Transmission IcPrim IntegrationTime IntensityMax Polarization PolarizationGen Mueller11 Mueller12 Mueller13 Mueller14 Mueller21 Mueller22 Mueller23 Mueller24 Mueller31 Mueller32 Mueller33 Mueller34 Mueller41 Mueller42 Mueller43 Mueller44 eV 
997.6623 38.461 133.916 -0.65377 0.67898 0.990 0.0000 0.21898 12.0000 4.79 0.9361 0.9367 1.0000 -0.1978 -0.0292 0.0253 -0.2185 0.9011 0.0391 -0.0062 0.0167 0.0352 -0.6038 0.6454 0.0060 0.0115 -0.6454 -0.6391 1.242747 
994.8812 38.505 133.779 -0.64951 0.67780 1.010 0.0000 0.21655 12.0000 5.18 0.9380 0.9387 1.0000 -0.1979 -0.0286 0.0219 -0.2156 0.9094 0.0400 -0.0073 0.0181 0.0367 -0.6022 0.6526 -0.0030 0.0027 -0.6415 -0.6380 1.246221 
992.4958 38.530 133.674 -0.64690 0.67756 1.019 0.0000 0.21526 12.0000 5.32 0.9401 0.9407 1.0000 -0.1982 -0.0277 0.0193 -0.2142 0.9157 0.0409 -0.0077 0.0188 0.0371 -0.6019 0.6574 -0.0083 -0.0025 -0.6407 -0.6374 1.249216 
990.1091 38.542 133.580 -0.64510 0.67788 0.944 0.0000 0.21458 12.0000 5.47 0.9421 0.9428 1.0000 -0.1987 -0.0266 0.0172 -0.2135 0.9212 0.0418 -0.0076 0.0189 0.0369 -0.6024 0.6605 -0.0114 -0.0055 -0.6419 -0.6369 1.252228 
987.3229 38.576 133.405 -0.64482 0.68177 0.974 0.0000 0.21403 12.0000 5.74 0.9471 0.9477 1.0000 -0.1995 -0.0233 0.0137 -0.2134 0.9292 0.0434 -0.0059 0.0173 0.0341 -0.6071 0.6632 -0.0100 -0.0006 -0.6520 -0.6369 1.255761 
984.9332 38.506 133.460 -0.64313 0.67866 1.011 0.0000 0.21565 12.0000 6.01 0.9451 0.9457 1.0000 -0.1993 -0.0221 0.0133 -0.2164 0.9280 0.0470 -0.0070 0.0185 0.0354 -0.6058 0.6567 -0.0101 -0.0085 -0.6518 -0.6341 1.258808 
982.5420 38.418 133.436 -0.64451 0.68069 0.979 0.0000 0.21924 12.0000 6.10 0.9441 0.9446 1.0000 -0.2027 -0.0240 0.0136 -0.2189 0.9228 0.0427 -0.0038 0.0160 0.0322 -0.6084 0.6541 -0.0082 -0.0046 -0.6547 -0.6308 1.261872 
979.7505 38.481 133.189 -0.64133 0.68320 0.986 0.0000 0.21700 12.0000 6.30 0.9451 0.9455 1.0000 -0.2033 -0.0249 0.0152 -0.2146 0.9258 0.0346 -0.0004 0.0135 0.0337 -0.6057 0.6569 -0.0020 0.0017 -0.6587 -0.6294 1.265467 
977.3562 38.494 133.162 -0.64045 0.68292 0.999 0.0000 0.21635 12.0000 6.56 0.9452 0.9456 1.0000 -0.2031 -0.0215 0.0176 -0.2138 0.9268 0.0341 -0.0020 0.0154 0.0353 -0.6032 0.6551 -0.0012 0.0013 -0.6607 -0.6308 1.268567 
974.9604 38.412 133.026 -0.63981 0.68549 0.994 0.0000 0.21952 12.0000 7.13 0.9425 0.9430 1.0000 -0.2044 -0.0182 0.0179 -0.2169 0.9192 0.0332 -0.0007 0.0148 0.0348 -0.5995 0.6537 -0.0024 0.0003 -0.6619 -0.6285 1.271684 
972.1634 38.428 132.860 -0.64006 0.68974 0.986 0.0000 0.21973 12.0000 7.22 0.9453 0.9458 1.0000 -0.2041 -0.0170 0.0210 -0.2182 0.9217 0.0328 0.0025 0.0130 0.0359 -0.5979 0.6582 0.0006 0.0056 -0.6673 -0.6321 1.275343 
969.7643 38.395 132.989 -0.63879 0.68528 0.983 0.0000 0.21990 12.0000 7.51 0.9409 0.9413 1.0000 -0.2064 -0.0214 0.0181 -0.2151 0.9165 0.0291 -0.0042 0.0172 0.0317 -0.5975 0.6557 0.0037 0.0067 -0.6577 -0.6267 1.278498 
967.3636 38.394 132.958 -0.63856 0.68578 0.997 0.0000 0.21999 12.0000 7.98 0.9394 0.9398 1.0000 -0.2066 -0.0221 0.0177 -0.2143 0.9132 0.0282 -0.0026 0.0157 0.0289 -0.5966 0.6586 0.0042 0.0095 -0.6534 -0.6251 1.281671 
964.5610 38.444 132.872 -0.63962 0.68897 0.997 0.0000 0.21897 12.0000 8.05 0.9436 0.9440 1.0000 -0.2066 -0.0228 0.0181 -0.2136 0.9192 0.0259 -0.0025 0.0146 0.0305 -0.5983 0.6657 0.0039 0.0126 -0.6566 -0.6292 1.285395 
962.1569 38.465 132.832 -0.64119 0.69166 0.983 0.0000 0.21897 12.0000 8.30 0.9463 0.9466 1.0000 -0.2075 -0.0230 0.0176 -0.2133 0.9218 0.0276 -0.0035 0.0136 0.0278 -0.6005 0.6702 0.0049 0.0162 -0.6590 -0.6318 1.288607 
959.7513 38.547 132.619 -0.63924 0.69471 1.000 0.0000 0.21634 12.0000 8.73 0.9471 0.9475 1.0000 -0.2045 -0.0242 0.0139 -0.2116 0.9232 0.0277 -0.0041 0.0155 0.0298 -0.6003 0.6735 0.0040 0.0171 -0.6625 -0.6291 1.291837 
956.9427 38.514 132.725 -0.63984 0.69279 0.985 0.0000 0.21725 12.0000 9.06 0.9454 0.9458 1.0000 -0.2033 -0.0282 0.0130 -0.2139 0.9205 0.0306 -0.0062 0.0199 0.0348 -0.6031 0.6723 0.0004 0.0102 -0.6582 -0.6257 1.295628 
954.5336 38.488 132.852 -0.64105 0.69101 1.026 0.0000 0.21801 12.0000 9.53 0.9455 0.9460 1.0000 -0.2043 -0.0308 0.0130 -0.2145 0.9211 0.0294 -0.0074 0.0208 0.0337 -0.6061 0.6716 -0.0038 0.0044 -0.6559 -0.6254 1.298898 
952.1228 38.495 132.828 -0.64117 0.69171 1.008 0.0000 0.21790 12.0000 9.63 0.9460 0.9465 1.0000 -0.2042 -0.0330 0.0127 -0.2146 0.9216 0.0290 -0.0053 0.0181 0.0328 -0.6085 0.6722 -0.0067 0.0023 -0.6570 -0.6235 1.302187 
949.3082 38.463 132.640 -0.64139 0.69653 1.005 0.0000 0.21989 12.0000 9.63 0.9479 0.9484 1.0000 -0.2061 -0.0327 0.0152 -0.2165 0.9216 0.0286 -0.0007 0.0199 0.0344 -0.6090 0.6772 -0.0071 0.0023 -0.6612 -0.6235 1.306048 
946.8937 38.439 132.577 -0.64138 0.69805 1.003 0.0000 0.22099 12.0000 10.18 0.9482 0.9488 1.0000 -0.2070 -0.0308 0.0158 -0.2175 0.9210 0.0295 -0.0011 0.0234 0.0374 -0.6087 0.6775 -0.0083 -0.0001 -0.6634 -0.6234 1.309378 
944.4776 38.344 132.396 -0.63951 0.70044 1.003 0.0000 0.22443 12.0000 10.23 0.9459 0.9464 1.0000 -0.2112 -0.0309 0.0153 -0.2186 0.9149 0.0274 -0.0009 0.0246 0.0358 -0.6049 0.6777 -0.0087 0.0001 -0.6636 -0.6198 1.312728 
941.6566 38.319 132.267 -0.63903 0.70311 1.018 0.0000 0.22568 12.0000 10.71 0.9481 0.9485 1.0000 -0.2134 -0.0291 0.0150 -0.2193 0.9175 0.0281 0.0012 0.0225 0.0333 -0.6050 0.6815 -0.0072 0.0054 -0.6667 -0.6203 1.316660 
939.2368 38.293 132.142 -0.63719 0.70415 1.014 0.0000 0.22647 12.0000 10.91 0.9501 0.9505 1.0000 -0.2163 -0.0283 0.0157 -0.2190 0.9220 0.0277 0.0008 0.0213 0.0286 -0.6042 0.6843 -0.0050 0.0065 -0.6690 -0.6205 1.320052 
936.4113 38.224 131.934 -0.63593 0.70791 1.024 0.0000 0.22936 12.0000 11.44 0.9501 0.9504 1.0000 -0.2185 -0.0255 0.0159 -0.2218 0.9194 0.0281 0.0036 0.0172 0.0237 -0.6014 0.6855 -0.0040 0.0081 -0.6733 -0.6192 1.324036 
933.9876 38.240 131.742 -0.63272 0.70909 1.004 0.0000 0.22850 12.0000 11.56 0.9512 0.9515 1.0000 -0.2193 -0.0242 0.0149 -0.2201 0.9232 0.0263 0.0005 0.0142 0.0212 -0.5987 0.6870 -0.0023 0.0097 -0.6767 -0.6182 1.327471 
931.5621 38.245 131.480 -0.63039 0.71304 0.997 0.0000 0.22868 12.0000 11.76 0.9530 0.9533 1.0000 -0.2199 -0.0222 0.0131 -0.2204 0.9255 0.0248 -0.0007 0.0119 0.0198 -0.5977 0.6924 -0.0014 0.0126 -0.6805 -0.6161 1.330928 
928.7301 38.278 131.131 -0.62603 0.71684 1.021 0.0000 0.22750 12.0000 12.45 0.9535 0.9537 1.0000 -0.2186 -0.0214 0.0126 -0.2197 0.9267 0.0231 0.0001 0.0123 0.0201 -0.5936 0.6959 -0.0006 0.0121 -0.6852 -0.6126 1.334986 
926.3006 38.297 131.010 -0.62352 0.71702 1.026 0.0000 0.22646 12.0000 12.37 0.9548 0.9551 1.0000 -0.2178 -0.0211 0.0133 -0.2196 0.9312 0.0235 -0.0002 0.0120 0.0220 -0.5929 0.6970 -0.0014 0.0099 -0.6877 -0.6113 1.338488 
923.8693 38.295 131.034 -0.62225 0.71497 1.019 0.0000 0.22599 12.0000 13.00 0.9544 0.9546 1.0000 -0.2167 -0.0218 0.0147 -0.2201 0.9327 0.0234 -0.0008 0.0113 0.0217 -0.5920 0.6956 -0.0020 0.0064 -0.6862 -0.6106 1.342010 
921.0304 38.280 130.908 -0.61956 0.71503 1.017 0.0000 0.22610 12.0000 13.10 0.9544 0.9546 1.0000 -0.2175 -0.0209 0.0147 -0.2199 0.9343 0.0228 -0.0042 0.0105 0.0208 -0.5900 0.6963 -0.0028 0.0017 -0.6867 -0.6084 1.346147 
918.5950 38.283 130.828 -0.61931 0.71676 1.008 0.0000 0.22626 12.0000 13.45 0.9547 0.9549 1.0000 -0.2169 -0.0203 0.0161 -0.2207 0.9338 0.0215 -0.0042 0.0123 0.0238 -0.5903 0.6968 -0.0026 0.0005 -0.6893 -0.6073 1.349716 
916.1577 38.290 130.595 -0.61516 0.71784 1.009 0.0000 0.22556 12.0000 12.78 0.9531 0.9533 1.0000 -0.2163 -0.0207 0.0159 -0.2196 0.9324 0.0198 -0.0068 0.0134 0.0258 -0.5849 0.6983 -0.0025 0.0006 -0.6889 -0.6038 1.353306 
913.3118 38.312 130.391 -0.61184 0.71915 1.020 0.0000 0.22454 12.0000 14.03 0.9526 0.9529 1.0000 -0.2153 -0.0203 0.0167 -0.2186 0.9328 0.0201 -0.0081 0.0147 0.0279 -0.5814 0.7008 -0.0011 0.0036 -0.6892 -0.6011 1.357523 
910.8703 38.321 130.410 -0.61184 0.71865 1.006 0.0000 0.22410 12.0000 14.20 0.9531 0.9535 1.0000 -0.2153 -0.0200 0.0172 -0.2182 0.9344 0.0209 -0.0091 0.0153 0.0303 -0.5817 0.7016 0.0000 0.0058 -0.6886 -0.6018 1.361162 
908.4269 38.290 130.308 -0.61002 0.71911 1.010 0.0000 0.22501 12.0000 14.50 0.9524 0.9527 1.0000 -0.2169 -0.0190 0.0166 -0.2181 0.9335 0.0212 -0.0114 0.0149 0.0288 -0.5796 0.7010 0.0011 0.0063 -0.6894 -0.5999 1.364823 
905.5737 38.257 130.263 -0.60880 0.71882 1.029 0.0000 0.22590 12.0000 14.57 0.9503 0.9506 1.0000 -0.2171 -0.0195 0.0172 -0.2189 0.9299 0.0225 -0.0110 0.0155 0.0286 -0.5774 0.7002 0.0003 0.0068 -0.6870 -0.5975 1.369123 
903.1259 38.256 130.157 -0.60634 0.71861 1.019 0.0000 0.22554 12.0000 15.11 0.9494 0.9497 1.0000 -0.2173 -0.0209 0.0164 -0.2179 0.9297 0.0213 -0.0122 0.0156 0.0288 -0.5752 0.7008 -0.0004 0.0073 -0.6860 -0.5949 1.372834 
900.6761 38.271 130.009 -0.60333 0.71879 1.025 0.0000 0.22459 12.0000 15.22 0.9482 0.9485 1.0000 -0.2154 -0.0216 0.0148 -0.2179 0.9292 0.0214 -0.0113 0.0167 0.0295 -0.5730 0.7008 -0.0016 0.0074 -0.6859 -0.5909 1.376568 
897.8156 38.240 129.883 -0.60042 0.71853 1.023 0.0000 0.22516 12.0000 15.43 0.9466 0.9469 1.0000 -0.2148 -0.0221 0.0134 -0.2192 0.9277 0.0248 -0.0100 0.0154 0.0284 -0.5701 0.6985 -0.0023 0.0064 -0.6866 -0.5873 1.380954 
895.3613 38.205 129.888 -0.59950 0.71729 1.024 0.0000 0.22599 12.0000 16.11 0.9465 0.9468 1.0000 -0.2157 -0.0227 0.0135 -0.2201 0.9287 0.0267 -0.0091 0.0157 0.0273 -0.5694 0.6968 -0.0031 0.0045 -0.6867 -0.5869 1.384739 
892.9051 38.145 129.842 -0.59959 0.71858 1.051 0.0000 0.22832 12.0000 16.04 0.9470 0.9473 1.0000 -0.2177 -0.0233 0.0128 -0.2226 0.9282 0.0278 -0.0078 0.0145 0.0246 -0.5696 0.6974 -0.0020 0.0053 -0.6882 -0.5865 1.388548 
890.0368 38.066 129.823 -0.59861 0.71789 1.037 0.0000 0.23078 12.0000 16.97 0.9459 0.9462 1.0000 -0.2189 -0.0260 0.0126 -0.2257 0.9265 0.0277 -0.0075 0.0146 0.0227 -0.5693 0.6954 -0.0017 0.0048 -0.6877 -0.5840 1.393023 
887.5759 38.017 129.738 -0.59789 0.71918 1.035 0.0000 0.23261 12.0000 16.56 0.9453 0.9456 1.0000 -0.2193 -0.0267 0.0126 -0.2283 0.9243 0.0303 -0.0057 0.0142 0.0227 -0.5691 0.6955 -0.0018 0.0049 -0.6884 -0.5814 1.396885 
885.1130 37.979 129.542 -0.59539 0.72119 1.028 0.0000 0.23390 12.0000 17.06 0.9458 0.9461 1.0000 -0.2201 -0.0275 0.0131 -0.2302 0.9251 0.0323 -0.0030 0.0136 0.0233 -0.5673 0.6981 -0.0016 0.0055 -0.6903 -0.5789 1.400772 
882.2369 37.929 129.378 -0.59530 0.72531 1.043 0.0000 0.23642 12.0000 17.32 0.9483 0.9487 1.0000 -0.2226 -0.0266 0.0140 -0.2329 0.9268 0.0350 -0.0012 0.0129 0.0233 -0.5676 0.7022 -0.0002 0.0067 -0.6953 -0.5794 1.405339 
879.7693 37.856 129.343 -0.59631 0.72743 1.022 0.0000 0.23955 12.0000 17.92 0.9507 0.9510 1.0000 -0.2260 -0.0265 0.0144 -0.2360 0.9287 0.0360 -0.0010 0.0122 0.0221 -0.5694 0.7051 0.0009 0.0063 -0.6979 -0.5807 1.409281 
877.2994 37.793 129.139 -0.59602 0.73239 1.025 0.0000 0.24271 12.0000 18.62 0.9531 0.9535 1.0000 -0.2298 -0.0247 0.0147 -0.2385 0.9296 0.0367 -0.0012 0.0106 0.0203 -0.5694 0.7104 0.0018 0.0070 -0.7028 -0.5807 1.413248 
874.4153 37.737 128.971 -0.59356 0.73373 1.014 0.0000 0.24454 12.0000 18.66 0.9528 0.9532 1.0000 -0.2312 -0.0250 0.0166 -0.2406 0.9290 0.0386 -0.0016 0.0108 0.0189 -0.5669 0.7126 0.0013 0.0052 -0.7028 -0.5780 1.417910 
871.9407 37.722 128.820 -0.59056 0.73397 1.030 0.0000 0.24460 12.0000 19.58 0.9532 0.9536 1.0000 -0.2321 -0.0250 0.0178 -0.2404 0.9315 0.0387 -0.0024 0.0102 0.0177 -0.5648 0.7142 0.0004 0.0031 -0.7034 -0.5759 1.421934 
869.4639 37.733 128.624 -0.58776 0.73565 1.034 0.0000 0.24410 12.0000 19.99 0.9544 0.9548 1.0000 -0.2320 -0.0237 0.0177 -0.2402 0.9344 0.0381 -0.0026 0.0103 0.0182 -0.5641 0.7170 -0.0002 0.0030 -0.7060 -0.5729 1.425984 
866.5714 37.683 128.539 -0.58612 0.73583 1.030 0.0000 0.24565 12.0000 19.85 0.9553 0.9557 1.0000 -0.2341 -0.0223 0.0187 -0.2416 0.9367 0.0408 -0.0040 0.0094 0.0165 -0.5628 0.7183 -0.0002 0.0013 -0.7067 -0.5723 1.430744 
864.0897 37.703 128.421 -0.58395 0.73620 1.032 0.0000 0.24467 12.0000 20.34 0.9563 0.9567 1.0000 -0.2340 -0.0205 0.0191 -0.2407 0.9400 0.0409 -0.0049 0.0094 0.0161 -0.5619 0.7193 -0.0007 -0.0003 -0.7089 -0.5710 1.434853 
861.6057 37.713 128.348 -0.58268 0.73653 1.022 0.0000 0.24418 12.0000 20.67 0.9566 0.9569 1.0000 -0.2331 -0.0204 0.0190 -0.2409 0.9412 0.0401 -0.0054 0.0100 0.0170 -0.5619 0.7207 0.0002 0.0009 -0.7091 -0.5692 1.438990 
858.7048 37.717 128.241 -0.57895 0.73462 1.030 0.0000 0.24306 12.0000 21.39 0.9549 0.9553 1.0000 -0.2320 -0.0213 0.0205 -0.2399 0.9417 0.0401 -0.0054 0.0114 0.0182 -0.5582 0.7186 0.0013 0.0029 -0.7077 -0.5659 1.443851 
856.2158 37.716 128.103 -0.57620 0.73477 1.030 0.0000 0.24268 12.0000 22.19 0.9535 0.9539 1.0000 -0.2312 -0.0217 0.0201 -0.2397 0.9404 0.0412 -0.0051 0.0119 0.0189 -0.5551 0.7187 0.0021 0.0046 -0.7071 -0.5629 1.448048 
853.7244 37.750 127.978 -0.57324 0.73430 1.044 0.0000 0.24092 12.0000 22.35 0.9530 0.9534 1.0000 -0.2298 -0.0212 0.0197 -0.2380 0.9418 0.0408 -0.0047 0.0122 0.0213 -0.5529 0.7182 0.0022 0.0052 -0.7077 -0.5603 1.452274 
850.8148 37.747 127.926 -0.57259 0.73484 1.024 0.0000 0.24103 12.0000 22.63 0.9525 0.9530 1.0000 -0.2295 -0.0214 0.0188 -0.2384 0.9409 0.0416 -0.0051 0.0128 0.0227 -0.5522 0.7182 0.0024 0.0058 -0.7081 -0.5592 1.457241 
848.3182 37.719 127.821 -0.57115 0.73576 1.032 0.0000 0.24197 12.0000 22.95 0.9513 0.9517 1.0000 -0.2295 -0.0224 0.0178 -0.2395 0.9382 0.0413 -0.0052 0.0135 0.0234 -0.5501 0.7172 0.0033 0.0070 -0.7089 -0.5569 1.461529 
845.8193 37.711 127.719 -0.57018 0.73722 1.019 0.0000 0.24238 12.0000 23.53 0.9505 0.9510 1.0000 -0.2283 -0.0228 0.0159 -0.2410 0.9359 0.0427 -0.0055 0.0141 0.0249 -0.5493 0.7179 0.0042 0.0085 -0.7093 -0.5545 1.465847 
842.9009 37.688 127.551 -0.56660 0.73704 1.041 0.0000 0.24256 12.0000 24.30 0.9487 0.9492 1.0000 -0.2278 -0.0244 0.0147 -0.2414 0.9344 0.0435 -0.0069 0.0148 0.0252 -0.5458 0.7172 0.0042 0.0080 -0.7085 -0.5502 1.470923 
840.3967 37.629 127.479 -0.56548 0.73750 1.029 0.0000 0.24453 12.0000 25.02 0.9480 0.9486 1.0000 -0.2287 -0.0254 0.0142 -0.2440 0.9328 0.0461 -0.0066 0.0142 0.0252 -0.5448 0.7169 0.0034 0.0066 -0.7085 -0.5481 1.475305 
837.8901 37.581 127.372 -0.56462 0.73923 1.032 0.0000 0.24641 12.0000 25.20 0.9489 0.9494 1.0000 -0.2305 -0.0256 0.0136 -0.2459 0.9332 0.0465 -0.0067 0.0139 0.0255 -0.5450 0.7184 0.0031 0.0056 -0.7107 -0.5465 1.479719 
834.9625 37.486 127.205 -0.56355 0.74231 1.028 0.0000 0.25021 12.0000 26.27 0.9501 0.9507 1.0000 -0.2336 -0.0272 0.0127 -0.2501 0.9332 0.0470 -0.0067 0.0133 0.0250 -0.5450 0.7213 0.0034 0.0050 -0.7137 -0.5444 1.484907 
832.4505 37.440 126.994 -0.56180 0.74571 1.021 0.0000 0.25226 12.0000 26.15 0.9513 0.9518 1.0000 -0.2359 -0.0277 0.0128 -0.2518 0.9335 0.0460 -0.0050 0.0128 0.0244 -0.5436 0.7242 0.0032 0.0047 -0.7176 -0.5426 1.489388 
829.9360 37.365 126.841 -0.56033 0.74788 1.016 0.0000 0.25512 12.0000 27.20 0.9524 0.9529 1.0000 -0.2388 -0.0281 0.0133 -0.2547 0.9342 0.0461 -0.0042 0.0121 0.0242 -0.5428 0.7263 0.0031 0.0038 -0.7203 -0.5409 1.493901 
826.9992 37.264 126.584 -0.55731 0.75084 1.011 0.0000 0.25882 12.0000 27.86 0.9531 0.9536 1.0000 -0.2426 -0.0288 0.0144 -0.2580 0.9341 0.0467 -0.0032 0.0116 0.0223 -0.5392 0.7292 0.0040 0.0043 -0.7230 -0.5387 1.499206 
824.4792 37.205 126.385 -0.55434 0.75231 1.012 0.0000 0.26073 12.0000 27.79 0.9534 0.9539 1.0000 -0.2449 -0.0289 0.0147 -0.2596 0.9347 0.0464 -0.0027 0.0108 0.0215 -0.5368 0.7310 0.0038 0.0035 -0.7246 -0.5357 1.503788 
821.9566 37.148 126.119 -0.55206 0.75654 0.995 0.0000 0.26333 12.0000 29.04 0.9552 0.9557 1.0000 -0.2474 -0.0281 0.0151 -0.2624 0.9359 0.0459 -0.0017 0.0104 0.0213 -0.5344 0.7360 0.0045 0.0044 -0.7285 -0.5343 1.508403 
819.0103 37.114 125.897 -0.54964 0.75938 1.003 0.0000 0.26475 12.0000 30.02 0.9563 0.9568 1.0000 -0.2489 -0.0277 0.0156 -0.2639 0.9370 0.0445 -0.0011 0.0105 0.0218 -0.5325 0.7397 0.0041 0.0040 -0.7312 -0.5322 1.513829 
816.4821 37.091 125.665 -0.54655 0.76158 0.991 0.0000 0.26559 12.0000 30.22 0.9570 0.9574 1.0000 -0.2501 -0.0272 0.0158 -0.2647 0.9381 0.0439 -0.0017 0.0108 0.0222 -0.5293 0.7429 0.0045 0.0051 -0.7332 -0.5300 1.518517 
813.9513 37.099 125.497 -0.54428 0.76315 1.006 0.0000 0.26526 12.0000 31.16 0.9576 0.9581 1.0000 -0.2496 -0.0261 0.0157 -0.2649 0.9396 0.0435 -0.0015 0.0115 0.0234 -0.5274 0.7455 0.0052 0.0069 -0.7347 -0.5283 1.523238 
810.9953 37.118 125.305 -0.54026 0.76289 0.986 0.0000 0.26391 12.0000 31.68 0.9570 0.9574 1.0000 -0.2494 -0.0261 0.0150 -0.2629 0.9410 0.0415 -0.0039 0.0125 0.0246 -0.5241 0.7464 0.0052 0.0071 -0.7345 -0.5246 1.528790 
808.4587 37.115 125.242 -0.53862 0.76236 0.973 0.0000 0.26359 12.0000 31.77 0.9562 0.9566 1.0000 -0.2496 -0.0256 0.0150 -0.2620 0.9408 0.0410 -0.0047 0.0129 0.0243 -0.5224 0.7458 0.0043 0.0062 -0.7338 -0.5229 1.533587 
805.4960 37.143 125.079 -0.53559 0.76266 0.973 0.0000 0.26221 12.0000 33.77 0.9560 0.9565 1.0000 -0.2486 -0.0253 0.0144 -0.2607 0.9423 0.0404 -0.0060 0.0133 0.0261 -0.5205 0.7463 0.0034 0.0061 -0.7351 -0.5197 1.539228 
802.9537 37.157 124.946 -0.53334 0.76322 0.958 0.0000 0.26148 12.0000 33.54 0.9560 0.9564 1.0000 -0.2481 -0.0257 0.0135 -0.2600 0.9431 0.0393 -0.0067 0.0141 0.0268 -0.5185 0.7469 0.0039 0.0081 -0.7361 -0.5179 1.544101 
800.4086 37.182 124.872 -0.53149 0.76268 0.955 0.0000 0.26019 12.0000 33.80 0.9549 0.9553 1.0000 -0.2468 -0.0256 0.0125 -0.2587 0.9427 0.0382 -0.0063 0.0144 0.0270 -0.5169 0.7458 0.0030 0.0083 -0.7359 -0.5156 1.549011 
797.4359 37.172 124.814 -0.53054 0.76294 0.943 0.0000 0.26043 12.0000 35.09 0.9553 0.9557 1.0000 -0.2478 -0.0257 0.0121 -0.2584 0.9437 0.0362 -0.0073 0.0138 0.0262 -0.5156 0.7462 0.0022 0.0078 -0.7367 -0.5156 1.554786 
794.8848 37.130 124.702 -0.52876 0.76358 0.945 0.0000 0.26176 12.0000 35.28 0.9540 0.9544 1.0000 -0.2486 -0.0270 0.0106 -0.2595 0.9412 0.0361 -0.0076 0.0140 0.0249 -0.5133 0.7456 0.0026 0.0096 -0.7366 -0.5132 1.559776 
792.3311 37.102 124.556 -0.52684 0.76497 0.933 0.0000 0.26276 12.0000 35.30 0.9536 0.9540 1.0000 -0.2496 -0.0275 0.0093 -0.2602 0.9401 0.0342 -0.0080 0.0133 0.0233 -0.5113 0.7463 0.0024 0.0103 -0.7377 -0.5108 1.564803 
789.3481 37.054 124.319 -0.52482 0.76880 0.938 0.0000 0.26500 12.0000 37.14 0.9548 0.9551 1.0000 -0.2511 -0.0277 0.0080 -0.2630 0.9400 0.0328 -0.0076 0.0125 0.0226 -0.5093 0.7499 0.0026 0.0113 -0.7416 -0.5088 1.570716 
786.7883 37.006 124.092 -0.52228 0.77163 0.932 0.0000 0.26699 12.0000 36.91 0.9554 0.9557 1.0000 -0.2527 -0.0276 0.0071 -0.2652 0.9398 0.0315 -0.0084 0.0123 0.0223 -0.5068 0.7523 0.0026 0.0106 -0.7445 -0.5063 1.575826 
784.2256 36.948 123.868 -0.51969 0.77432 0.929 0.0000 0.26924 12.0000 37.97 0.9565 0.9568 1.0000 -0.2550 -0.0276 0.0065 -0.2676 0.9408 0.0300 -0.0095 0.0116 0.0216 -0.5046 0.7559 0.0027 0.0102 -0.7468 -0.5040 1.580976 
781.2322 36.863 123.585 -0.51599 0.77707 0.923 0.0000 0.27232 12.0000 38.73 0.9575 0.9578 1.0000 -0.2582 -0.0274 0.0068 -0.2706 0.9418 0.0284 -0.0102 0.0116 0.0216 -0.5013 0.7597 0.0029 0.0087 -0.7492 -0.5007 1.587034 
778.6634 36.797 123.353 -0.51343 0.78006 0.914 0.0000 0.27496 12.0000 38.95 0.9591 0.9594 1.0000 -0.2617 -0.0268 0.0069 -0.2727 0.9434 0.0250 -0.0117 0.0111 0.0216 -0.5001 0.7642 0.0021 0.0062 -0.7517 -0.4977 1.592269 
776.0917 36.724 123.067 -0.50953 0.78260 0.915 0.0000 0.27756 12.0000 39.95 0.9602 0.9605 1.0000 -0.2646 -0.0259 0.0079 -0.2752 0.9449 0.0241 -0.0126 0.0112 0.0230 -0.4975 0.7676 0.0017 0.0049 -0.7545 -0.4935 1.597546 
