## SPECTRUM TYPE:
LCE

## DATE:
18/11/2025

## COMMENTS:
Au 36.7 nm Ti 3.5 nm

## NUMBER OF SPECTRUM:
1

## ELLIPSOMETRIC CONFIGURATION:
0.00 ø :Modulator
+45.00 øAnalyser

## UNIT:
nm

## SPOT SIZE:



# SPECTRUM:
1

# CAPTION:


# START TIME:
14:19:38

# END TIME:
14:19:38

# THETA ANGLE:
0.00 ø

# INCIDENCE ANGLE:
65.00 ø

# ACCUMULATION NUMBER:
25

# ELLIPSOMETRIC CONFIGURATION:
0.00 ø :Modulator
+45.00 øAnalyser

# INTEGRATION TIME:
9 ms

# FIRST POINT:
997.66 nm

# LAST POINT:
439.96 nm

# INCREMENT:
0.00 nm

# NUMBER OF POINTS:
200

# DATA:
nm Psi Delta Ic Is Reflectance Transmission IcPrim IntegrationTime IntensityMax Polarization PolarizationGen Mueller11 Mueller12 Mueller13 Mueller14 Mueller21 Mueller22 Mueller23 Mueller24 Mueller31 Mueller32 Mueller33 Mueller34 Mueller41 Mueller42 Mueller43 Mueller44 eV 
997.6623 41.278 139.992 -0.72615 0.60949 0.877 0.0000 0.12386 9.0000 4.06 0.9362 0.9370 1.0000 -0.1093 -0.0215 0.0257 -0.1276 0.9125 0.0364 -0.0041 0.0297 0.0514 -0.6685 0.5784 -0.0017 0.0017 -0.5872 -0.7202 1.242747 
994.8812 41.285 140.105 -0.72790 0.60852 0.894 0.0000 0.12373 9.0000 4.31 0.9384 0.9392 1.0000 -0.1103 -0.0221 0.0240 -0.1269 0.9165 0.0397 -0.0025 0.0277 0.0473 -0.6735 0.5848 -0.0082 -0.0046 -0.5814 -0.7215 1.246221 
992.4958 41.273 140.155 -0.72963 0.60888 0.906 0.0000 0.12435 9.0000 4.36 0.9409 0.9416 1.0000 -0.1118 -0.0220 0.0227 -0.1269 0.9201 0.0422 -0.0009 0.0258 0.0439 -0.6779 0.5894 -0.0115 -0.0077 -0.5797 -0.7231 1.249216 
990.1091 41.245 140.163 -0.73144 0.61022 0.876 0.0000 0.12558 9.0000 4.56 0.9436 0.9443 1.0000 -0.1140 -0.0213 0.0217 -0.1276 0.9234 0.0444 0.0009 0.0238 0.0408 -0.6820 0.5929 -0.0129 -0.0089 -0.5808 -0.7249 1.252228 
987.3229 41.168 139.992 -0.73587 0.61765 0.876 0.0000 0.12928 9.0000 4.81 0.9509 0.9515 1.0000 -0.1198 -0.0167 0.0210 -0.1298 0.9302 0.0491 0.0055 0.0194 0.0361 -0.6898 0.5982 -0.0082 -0.0009 -0.5940 -0.7305 1.255761 
984.9332 41.133 139.969 -0.73260 0.61541 0.892 0.0000 0.12994 9.0000 5.04 0.9492 0.9499 1.0000 -0.1196 -0.0153 0.0202 -0.1312 0.9305 0.0516 0.0036 0.0194 0.0347 -0.6864 0.5935 -0.0082 -0.0084 -0.5946 -0.7279 1.258808 
982.5420 41.139 139.888 -0.73089 0.61573 0.887 0.0000 0.12960 9.0000 5.15 0.9472 0.9478 1.0000 -0.1200 -0.0179 0.0194 -0.1298 0.9275 0.0448 0.0054 0.0179 0.0346 -0.6866 0.5906 -0.0075 -0.0072 -0.5962 -0.7222 1.261872 
979.7505 41.185 139.710 -0.72914 0.61813 0.872 0.0000 0.12805 9.0000 5.30 0.9481 0.9486 1.0000 -0.1208 -0.0192 0.0200 -0.1263 0.9294 0.0369 0.0083 0.0167 0.0380 -0.6864 0.5925 -0.0026 -0.0023 -0.6001 -0.7204 1.265467 
977.3562 41.208 139.756 -0.72801 0.61618 0.877 0.0000 0.12700 9.0000 5.54 0.9485 0.9490 1.0000 -0.1206 -0.0198 0.0199 -0.1248 0.9325 0.0323 0.0035 0.0183 0.0395 -0.6858 0.5904 -0.0015 -0.0022 -0.6003 -0.7211 1.268567 
974.9604 41.185 139.633 -0.72681 0.61784 0.872 0.0000 0.12781 9.0000 5.97 0.9464 0.9468 1.0000 -0.1214 -0.0179 0.0186 -0.1250 0.9278 0.0310 0.0030 0.0125 0.0312 -0.6829 0.5898 -0.0004 0.0000 -0.6013 -0.7182 1.271684 
972.1634 41.188 139.483 -0.72701 0.62130 0.862 0.0000 0.12800 9.0000 6.06 0.9478 0.9482 1.0000 -0.1209 -0.0194 0.0204 -0.1259 0.9283 0.0287 0.0054 0.0131 0.0337 -0.6818 0.5926 0.0013 0.0050 -0.6055 -0.7201 1.275343 
969.7643 41.173 139.588 -0.72413 0.61654 0.876 0.0000 0.12779 9.0000 6.37 0.9420 0.9423 1.0000 -0.1223 -0.0245 0.0154 -0.1232 0.9214 0.0245 -0.0032 0.0179 0.0313 -0.6793 0.5889 0.0030 0.0050 -0.5957 -0.7120 1.278498 
967.3636 41.243 139.613 -0.72265 0.61475 0.880 0.0000 0.12513 9.0000 6.74 0.9404 0.9408 1.0000 -0.1200 -0.0257 0.0144 -0.1204 0.9207 0.0232 -0.0022 0.0182 0.0303 -0.6793 0.5914 0.0019 0.0056 -0.5894 -0.7087 1.281671 
964.5610 41.251 139.607 -0.72549 0.61728 0.888 0.0000 0.12538 9.0000 6.78 0.9446 0.9450 1.0000 -0.1210 -0.0253 0.0162 -0.1205 0.9258 0.0231 0.0000 0.0170 0.0310 -0.6834 0.5968 0.0020 0.0098 -0.5919 -0.7137 1.285395 
962.1569 41.211 139.548 -0.72873 0.62134 0.885 0.0000 0.12741 9.0000 7.05 0.9478 0.9482 1.0000 -0.1234 -0.0237 0.0174 -0.1222 0.9271 0.0270 0.0013 0.0172 0.0296 -0.6864 0.6010 0.0031 0.0137 -0.5964 -0.7179 1.288607 
959.7513 41.229 139.324 -0.72893 0.62645 0.901 0.0000 0.12724 9.0000 7.39 0.9505 0.9509 1.0000 -0.1231 -0.0221 0.0155 -0.1224 0.9294 0.0310 0.0019 0.0185 0.0305 -0.6881 0.6063 0.0038 0.0164 -0.6024 -0.7183 1.291837 
956.9427 41.219 139.234 -0.72703 0.62679 0.883 0.0000 0.12744 9.0000 7.73 0.9497 0.9502 1.0000 -0.1214 -0.0231 0.0152 -0.1244 0.9289 0.0358 -0.0006 0.0212 0.0324 -0.6865 0.6082 0.0003 0.0098 -0.6008 -0.7158 1.295628 
954.5336 41.198 139.315 -0.72720 0.62516 0.909 0.0000 0.12802 9.0000 8.06 0.9499 0.9503 1.0000 -0.1216 -0.0248 0.0156 -0.1255 0.9301 0.0358 -0.0009 0.0208 0.0295 -0.6885 0.6078 -0.0033 0.0041 -0.5989 -0.7151 1.298898 
952.1228 41.224 139.256 -0.72711 0.62637 0.890 0.0000 0.12722 9.0000 8.12 0.9506 0.9510 1.0000 -0.1201 -0.0263 0.0151 -0.1256 0.9310 0.0342 0.0000 0.0194 0.0310 -0.6906 0.6090 -0.0067 0.0005 -0.6006 -0.7134 1.302187 
949.3082 41.160 139.022 -0.72865 0.63291 0.886 0.0000 0.13016 9.0000 8.10 0.9537 0.9542 1.0000 -0.1234 -0.0276 0.0173 -0.1281 0.9318 0.0312 0.0034 0.0195 0.0307 -0.6917 0.6162 -0.0060 0.0020 -0.6065 -0.7159 1.306048 
946.8937 41.104 139.020 -0.73026 0.63437 0.894 0.0000 0.13237 9.0000 8.62 0.9539 0.9543 1.0000 -0.1258 -0.0271 0.0177 -0.1296 0.9297 0.0299 0.0027 0.0205 0.0307 -0.6935 0.6170 -0.0063 0.0014 -0.6071 -0.7157 1.309378 
944.4776 40.998 138.919 -0.73072 0.63702 0.909 0.0000 0.13630 9.0000 8.71 0.9522 0.9526 1.0000 -0.1311 -0.0282 0.0168 -0.1311 0.9237 0.0262 0.0024 0.0214 0.0289 -0.6928 0.6181 -0.0060 0.0030 -0.6073 -0.7129 1.312728 
941.6566 40.981 138.684 -0.72976 0.64146 0.902 0.0000 0.13721 9.0000 9.06 0.9544 0.9548 1.0000 -0.1330 -0.0265 0.0172 -0.1313 0.9260 0.0252 0.0041 0.0191 0.0281 -0.6904 0.6235 -0.0044 0.0073 -0.6120 -0.7151 1.316660 
939.2368 40.973 138.589 -0.72791 0.64199 0.894 0.0000 0.13734 9.0000 9.25 0.9558 0.9561 1.0000 -0.1344 -0.0263 0.0181 -0.1306 0.9298 0.0241 0.0039 0.0183 0.0242 -0.6896 0.6265 -0.0024 0.0083 -0.6124 -0.7151 1.320052 
936.4113 40.934 138.516 -0.72798 0.64371 0.902 0.0000 0.13884 9.0000 9.70 0.9553 0.9556 1.0000 -0.1349 -0.0238 0.0189 -0.1327 0.9275 0.0235 0.0072 0.0141 0.0202 -0.6899 0.6263 -0.0015 0.0090 -0.6144 -0.7132 1.324036 
933.9876 40.937 138.352 -0.72564 0.64533 0.900 0.0000 0.13866 9.0000 9.83 0.9561 0.9564 1.0000 -0.1362 -0.0212 0.0190 -0.1314 0.9298 0.0235 0.0057 0.0120 0.0180 -0.6874 0.6266 0.0004 0.0114 -0.6188 -0.7130 1.327471 
931.5621 40.919 138.122 -0.72414 0.64924 0.887 0.0000 0.13948 9.0000 10.02 0.9571 0.9573 1.0000 -0.1373 -0.0201 0.0178 -0.1319 0.9303 0.0222 0.0053 0.0096 0.0162 -0.6867 0.6312 0.0015 0.0149 -0.6220 -0.7111 1.330928 
928.7301 40.987 137.786 -0.71927 0.65252 0.919 0.0000 0.13694 9.0000 10.61 0.9570 0.9572 1.0000 -0.1349 -0.0193 0.0171 -0.1297 0.9317 0.0203 0.0054 0.0107 0.0178 -0.6820 0.6340 0.0022 0.0140 -0.6265 -0.7074 1.334986 
926.3006 41.067 137.652 -0.71508 0.65178 0.909 0.0000 0.13368 9.0000 10.53 0.9573 0.9575 1.0000 -0.1315 -0.0183 0.0175 -0.1274 0.9364 0.0219 0.0052 0.0107 0.0203 -0.6795 0.6334 0.0007 0.0109 -0.6287 -0.7051 1.338488 
923.8693 41.124 137.703 -0.71193 0.64774 0.910 0.0000 0.13101 9.0000 11.08 0.9557 0.9559 1.0000 -0.1280 -0.0188 0.0180 -0.1259 0.9383 0.0226 0.0045 0.0109 0.0206 -0.6776 0.6296 -0.0002 0.0071 -0.6259 -0.7023 1.342010 
921.0304 41.127 137.645 -0.70964 0.64697 0.908 0.0000 0.13061 9.0000 11.17 0.9551 0.9553 1.0000 -0.1279 -0.0183 0.0172 -0.1254 0.9393 0.0237 0.0018 0.0118 0.0208 -0.6766 0.6284 -0.0015 0.0026 -0.6263 -0.6997 1.346147 
918.5950 41.140 137.592 -0.70888 0.64747 0.910 0.0000 0.13014 9.0000 11.49 0.9549 0.9551 1.0000 -0.1271 -0.0192 0.0174 -0.1253 0.9392 0.0222 0.0013 0.0141 0.0227 -0.6771 0.6284 -0.0020 0.0016 -0.6272 -0.6975 1.349716 
916.1577 41.183 137.448 -0.70452 0.64675 0.892 0.0000 0.12818 9.0000 10.93 0.9528 0.9530 1.0000 -0.1253 -0.0194 0.0158 -0.1233 0.9387 0.0214 -0.0022 0.0156 0.0246 -0.6735 0.6284 -0.0028 0.0009 -0.6254 -0.6923 1.353306 
913.3118 41.184 137.312 -0.70252 0.64799 0.919 0.0000 0.12805 9.0000 12.06 0.9525 0.9528 1.0000 -0.1250 -0.0194 0.0166 -0.1232 0.9387 0.0219 -0.0024 0.0177 0.0277 -0.6722 0.6308 -0.0016 0.0041 -0.6255 -0.6898 1.357523 
910.8703 41.213 137.308 -0.70217 0.64775 0.908 0.0000 0.12703 9.0000 12.12 0.9534 0.9537 1.0000 -0.1241 -0.0188 0.0166 -0.1225 0.9411 0.0238 -0.0035 0.0180 0.0294 -0.6722 0.6322 -0.0011 0.0054 -0.6252 -0.6908 1.361162 
908.4269 41.184 137.217 -0.70062 0.64839 0.909 0.0000 0.12793 9.0000 12.41 0.9526 0.9529 1.0000 -0.1253 -0.0184 0.0157 -0.1229 0.9402 0.0238 -0.0059 0.0184 0.0293 -0.6707 0.6321 -0.0010 0.0043 -0.6259 -0.6886 1.364823 
905.5737 41.137 137.180 -0.69984 0.64851 0.922 0.0000 0.12944 9.0000 12.44 0.9505 0.9508 1.0000 -0.1260 -0.0192 0.0162 -0.1246 0.9359 0.0242 -0.0057 0.0188 0.0296 -0.6689 0.6319 -0.0020 0.0036 -0.6236 -0.6860 1.369123 
903.1259 41.104 137.039 -0.69835 0.65033 0.913 0.0000 0.13057 9.0000 12.94 0.9501 0.9504 1.0000 -0.1274 -0.0203 0.0153 -0.1252 0.9348 0.0230 -0.0076 0.0192 0.0308 -0.6668 0.6335 -0.0027 0.0033 -0.6248 -0.6844 1.372834 
900.6761 41.075 136.862 -0.69630 0.65245 0.925 0.0000 0.13155 9.0000 12.99 0.9492 0.9495 1.0000 -0.1272 -0.0211 0.0141 -0.1270 0.9329 0.0223 -0.0066 0.0194 0.0310 -0.6646 0.6355 -0.0031 0.0042 -0.6257 -0.6814 1.376568 
897.8156 41.025 136.675 -0.69349 0.65408 0.925 0.0000 0.13312 9.0000 13.27 0.9478 0.9482 1.0000 -0.1278 -0.0212 0.0130 -0.1292 0.9308 0.0244 -0.0056 0.0182 0.0310 -0.6610 0.6346 -0.0036 0.0024 -0.6283 -0.6780 1.380954 
895.3613 40.960 136.662 -0.69360 0.65449 0.924 0.0000 0.13540 9.0000 13.85 0.9484 0.9488 1.0000 -0.1306 -0.0218 0.0134 -0.1309 0.9314 0.0258 -0.0045 0.0176 0.0291 -0.6610 0.6342 -0.0037 0.0013 -0.6299 -0.6787 1.384739 
892.9051 40.894 136.573 -0.69364 0.65656 0.945 0.0000 0.13784 9.0000 13.78 0.9490 0.9493 1.0000 -0.1326 -0.0220 0.0129 -0.1335 0.9307 0.0272 -0.0032 0.0168 0.0275 -0.6607 0.6355 -0.0023 0.0020 -0.6321 -0.6786 1.388548 
890.0368 40.810 136.536 -0.69270 0.65651 0.935 0.0000 0.14058 9.0000 14.66 0.9484 0.9487 1.0000 -0.1347 -0.0239 0.0135 -0.1366 0.9299 0.0285 -0.0022 0.0165 0.0246 -0.6604 0.6347 -0.0018 0.0020 -0.6323 -0.6764 1.393023 
887.5759 40.768 136.442 -0.69206 0.65809 0.935 0.0000 0.14210 9.0000 14.33 0.9479 0.9482 1.0000 -0.1350 -0.0246 0.0139 -0.1390 0.9281 0.0307 -0.0001 0.0162 0.0238 -0.6601 0.6358 -0.0016 0.0025 -0.6330 -0.6743 1.396885 
885.1130 40.766 136.244 -0.68868 0.65940 0.931 0.0000 0.14193 9.0000 14.71 0.9481 0.9484 1.0000 -0.1348 -0.0247 0.0143 -0.1391 0.9299 0.0326 0.0022 0.0157 0.0238 -0.6579 0.6381 -0.0019 0.0029 -0.6345 -0.6712 1.400772 
882.2369 40.734 136.101 -0.68827 0.66231 0.940 0.0000 0.14329 9.0000 14.88 0.9497 0.9500 1.0000 -0.1360 -0.0244 0.0155 -0.1407 0.9313 0.0337 0.0041 0.0159 0.0249 -0.6580 0.6412 -0.0010 0.0037 -0.6380 -0.6713 1.405339 
879.7693 40.706 136.053 -0.68773 0.66289 0.924 0.0000 0.14426 9.0000 15.48 0.9513 0.9517 1.0000 -0.1375 -0.0246 0.0155 -0.1415 0.9346 0.0336 0.0032 0.0155 0.0244 -0.6588 0.6433 -0.0007 0.0025 -0.6391 -0.6717 1.409281 
877.2994 40.675 135.895 -0.68745 0.66629 0.925 0.0000 0.14565 9.0000 16.02 0.9531 0.9535 1.0000 -0.1395 -0.0235 0.0154 -0.1425 0.9360 0.0336 0.0020 0.0150 0.0236 -0.6597 0.6477 -0.0006 0.0029 -0.6422 -0.6712 1.413248 
874.4153 40.639 135.720 -0.68481 0.66782 0.922 0.0000 0.14675 9.0000 15.96 0.9523 0.9527 1.0000 -0.1401 -0.0233 0.0174 -0.1439 0.9351 0.0353 0.0012 0.0151 0.0229 -0.6566 0.6497 -0.0009 0.0014 -0.6426 -0.6686 1.417910 
871.9407 40.633 135.573 -0.68191 0.66839 0.937 0.0000 0.14670 9.0000 16.73 0.9518 0.9522 1.0000 -0.1405 -0.0234 0.0185 -0.1434 0.9356 0.0348 0.0001 0.0155 0.0236 -0.6536 0.6506 -0.0024 -0.0012 -0.6432 -0.6664 1.421934 
869.4639 40.638 135.365 -0.67971 0.67110 0.938 0.0000 0.14657 9.0000 17.08 0.9528 0.9532 1.0000 -0.1405 -0.0220 0.0185 -0.1435 0.9374 0.0340 0.0000 0.0156 0.0244 -0.6525 0.6538 -0.0024 -0.0001 -0.6464 -0.6644 1.425984 
866.5714 40.615 135.293 -0.67791 0.67100 0.940 0.0000 0.14717 9.0000 16.97 0.9530 0.9534 1.0000 -0.1415 -0.0214 0.0193 -0.1438 0.9390 0.0348 -0.0019 0.0153 0.0242 -0.6509 0.6545 -0.0026 -0.0020 -0.6466 -0.6635 1.430744 
864.0897 40.629 135.169 -0.67602 0.67205 0.935 0.0000 0.14657 9.0000 17.31 0.9538 0.9542 1.0000 -0.1419 -0.0200 0.0195 -0.1427 0.9414 0.0344 -0.0030 0.0145 0.0227 -0.6499 0.6558 -0.0029 -0.0030 -0.6489 -0.6626 1.434853 
861.6057 40.630 135.082 -0.67568 0.67374 0.931 0.0000 0.14670 9.0000 17.62 0.9547 0.9550 1.0000 -0.1416 -0.0197 0.0195 -0.1433 0.9422 0.0343 -0.0032 0.0146 0.0230 -0.6503 0.6579 -0.0017 -0.0011 -0.6506 -0.6620 1.438990 
858.7048 40.624 135.000 -0.67313 0.67313 0.943 0.0000 0.14655 9.0000 18.24 0.9533 0.9537 1.0000 -0.1412 -0.0207 0.0211 -0.1434 0.9416 0.0353 -0.0020 0.0155 0.0236 -0.6476 0.6566 -0.0006 0.0008 -0.6503 -0.6594 1.443851 
856.2158 40.614 134.861 -0.67153 0.67480 0.942 0.0000 0.14691 9.0000 18.86 0.9524 0.9528 1.0000 -0.1411 -0.0207 0.0208 -0.1438 0.9395 0.0373 -0.0007 0.0157 0.0235 -0.6451 0.6575 0.0007 0.0031 -0.6513 -0.6573 1.448048 
853.7244 40.626 134.787 -0.66963 0.67463 0.952 0.0000 0.14626 9.0000 18.93 0.9521 0.9525 1.0000 -0.1407 -0.0207 0.0204 -0.1431 0.9404 0.0379 0.0005 0.0158 0.0249 -0.6443 0.6571 0.0011 0.0043 -0.6519 -0.6550 1.452274 
850.8148 40.618 134.726 -0.66899 0.67541 0.927 0.0000 0.14656 9.0000 19.24 0.9522 0.9526 1.0000 -0.1408 -0.0210 0.0195 -0.1436 0.9405 0.0392 0.0006 0.0153 0.0249 -0.6441 0.6581 0.0019 0.0051 -0.6525 -0.6541 1.457241 
848.3182 40.587 134.644 -0.66762 0.67596 0.941 0.0000 0.14751 9.0000 19.54 0.9514 0.9518 1.0000 -0.1412 -0.0218 0.0181 -0.1449 0.9392 0.0398 0.0006 0.0157 0.0245 -0.6433 0.6577 0.0029 0.0063 -0.6531 -0.6514 1.461529 
845.8193 40.583 134.565 -0.66683 0.67704 0.938 0.0000 0.14770 9.0000 20.04 0.9511 0.9516 1.0000 -0.1402 -0.0215 0.0165 -0.1462 0.9385 0.0423 0.0006 0.0162 0.0255 -0.6439 0.6586 0.0038 0.0076 -0.6539 -0.6487 1.465847 
842.9009 40.559 134.382 -0.66332 0.67780 0.949 0.0000 0.14820 9.0000 20.60 0.9502 0.9507 1.0000 -0.1402 -0.0224 0.0156 -0.1471 0.9383 0.0445 0.0001 0.0162 0.0248 -0.6409 0.6588 0.0044 0.0069 -0.6550 -0.6448 1.470923 
840.3967 40.509 134.303 -0.66187 0.67816 0.938 0.0000 0.14977 9.0000 21.30 0.9497 0.9502 1.0000 -0.1409 -0.0236 0.0150 -0.1493 0.9378 0.0454 -0.0009 0.0160 0.0257 -0.6401 0.6591 0.0034 0.0045 -0.6550 -0.6424 1.475305 
837.8901 40.475 134.198 -0.66050 0.67925 0.936 0.0000 0.15091 9.0000 21.48 0.9508 0.9513 1.0000 -0.1422 -0.0240 0.0142 -0.1505 0.9401 0.0451 -0.0016 0.0157 0.0259 -0.6408 0.6607 0.0030 0.0030 -0.6571 -0.6406 1.479719 
834.9625 40.410 134.000 -0.65883 0.68223 0.936 0.0000 0.15328 9.0000 22.44 0.9521 0.9526 1.0000 -0.1438 -0.0248 0.0141 -0.1538 0.9415 0.0455 -0.0013 0.0155 0.0263 -0.6404 0.6642 0.0030 0.0015 -0.6604 -0.6387 1.484907 
832.4505 40.368 133.796 -0.65701 0.68522 0.926 0.0000 0.15485 9.0000 22.34 0.9534 0.9538 1.0000 -0.1458 -0.0255 0.0141 -0.1551 0.9430 0.0441 -0.0001 0.0147 0.0254 -0.6399 0.6674 0.0026 0.0006 -0.6640 -0.6367 1.489388 
829.9360 40.305 133.629 -0.65584 0.68801 0.921 0.0000 0.15720 9.0000 23.21 0.9545 0.9549 1.0000 -0.1482 -0.0258 0.0148 -0.1574 0.9437 0.0433 0.0004 0.0139 0.0248 -0.6390 0.6700 0.0027 -0.0001 -0.6673 -0.6357 1.493901 
826.9992 40.212 133.400 -0.65349 0.69105 0.925 0.0000 0.16047 9.0000 23.77 0.9545 0.9550 1.0000 -0.1516 -0.0261 0.0164 -0.1601 0.9427 0.0438 0.0013 0.0143 0.0237 -0.6359 0.6724 0.0031 0.0004 -0.6701 -0.6336 1.499206 
824.4792 40.153 133.211 -0.65132 0.69331 0.923 0.0000 0.16249 9.0000 23.81 0.9548 0.9552 1.0000 -0.1538 -0.0256 0.0172 -0.1619 0.9427 0.0439 0.0021 0.0134 0.0229 -0.6337 0.6750 0.0033 0.0006 -0.6719 -0.6316 1.503788 
821.9566 40.109 132.977 -0.64966 0.69724 0.908 0.0000 0.16429 9.0000 24.78 0.9561 0.9566 1.0000 -0.1556 -0.0251 0.0173 -0.1637 0.9436 0.0427 0.0023 0.0131 0.0230 -0.6319 0.6799 0.0039 0.0019 -0.6753 -0.6308 1.508403 
819.0103 40.094 132.749 -0.64762 0.70061 0.920 0.0000 0.16499 9.0000 25.75 0.9573 0.9578 1.0000 -0.1567 -0.0244 0.0180 -0.1642 0.9449 0.0415 0.0027 0.0128 0.0232 -0.6298 0.6842 0.0037 0.0023 -0.6784 -0.6298 1.513829 
816.4821 40.071 132.535 -0.64556 0.70365 0.909 0.0000 0.16596 9.0000 25.88 0.9580 0.9584 1.0000 -0.1579 -0.0237 0.0185 -0.1649 0.9452 0.0419 0.0033 0.0131 0.0234 -0.6271 0.6878 0.0045 0.0044 -0.6810 -0.6287 1.518517 
813.9513 40.082 132.397 -0.64379 0.70511 0.924 0.0000 0.16553 9.0000 26.63 0.9581 0.9586 1.0000 -0.1573 -0.0226 0.0181 -0.1648 0.9457 0.0425 0.0037 0.0145 0.0259 -0.6256 0.6893 0.0051 0.0063 -0.6826 -0.6270 1.523238 
810.9953 40.098 132.201 -0.64054 0.70640 0.903 0.0000 0.16477 9.0000 27.26 0.9578 0.9582 1.0000 -0.1570 -0.0226 0.0172 -0.1637 0.9463 0.0414 0.0019 0.0148 0.0263 -0.6221 0.6912 0.0059 0.0081 -0.6837 -0.6246 1.528790 
808.4587 40.092 132.139 -0.63905 0.70627 0.895 0.0000 0.16480 9.0000 27.43 0.9568 0.9572 1.0000 -0.1573 -0.0226 0.0167 -0.1633 0.9454 0.0407 0.0005 0.0148 0.0256 -0.6204 0.6911 0.0050 0.0074 -0.6829 -0.6228 1.533587 
805.4960 40.105 131.968 -0.63648 0.70768 0.890 0.0000 0.16424 9.0000 29.13 0.9568 0.9572 1.0000 -0.1569 -0.0227 0.0156 -0.1628 0.9461 0.0407 -0.0004 0.0148 0.0260 -0.6188 0.6924 0.0041 0.0077 -0.6848 -0.6198 1.539228 
802.9537 40.094 131.811 -0.63481 0.70972 0.883 0.0000 0.16467 9.0000 29.03 0.9568 0.9573 1.0000 -0.1571 -0.0232 0.0146 -0.1633 0.9457 0.0405 -0.0002 0.0153 0.0265 -0.6170 0.6941 0.0048 0.0096 -0.6868 -0.6182 1.544101 
800.4086 40.103 131.720 -0.63293 0.70989 0.880 0.0000 0.16418 9.0000 29.24 0.9562 0.9566 1.0000 -0.1570 -0.0237 0.0131 -0.1625 0.9456 0.0389 -0.0004 0.0148 0.0253 -0.6157 0.6941 0.0045 0.0105 -0.6871 -0.6158 1.549011 
797.4359 40.080 131.651 -0.63160 0.71011 0.869 0.0000 0.16484 9.0000 30.42 0.9566 0.9570 1.0000 -0.1584 -0.0239 0.0124 -0.1625 0.9470 0.0366 -0.0018 0.0135 0.0228 -0.6149 0.6949 0.0037 0.0102 -0.6877 -0.6149 1.554786 
794.8848 40.040 131.522 -0.62923 0.71067 0.874 0.0000 0.16601 9.0000 30.63 0.9553 0.9557 1.0000 -0.1592 -0.0248 0.0109 -0.1637 0.9453 0.0359 -0.0025 0.0136 0.0217 -0.6125 0.6947 0.0040 0.0113 -0.6878 -0.6115 1.559776 
792.3311 40.005 131.350 -0.62716 0.71263 0.861 0.0000 0.16720 9.0000 30.66 0.9552 0.9556 1.0000 -0.1603 -0.0248 0.0102 -0.1649 0.9448 0.0338 -0.0032 0.0129 0.0203 -0.6105 0.6962 0.0038 0.0113 -0.6898 -0.6092 1.564803 
789.3481 39.965 131.110 -0.62489 0.71607 0.861 0.0000 0.16876 9.0000 32.28 0.9565 0.9568 1.0000 -0.1614 -0.0249 0.0094 -0.1671 0.9461 0.0313 -0.0033 0.0121 0.0202 -0.6092 0.7000 0.0038 0.0111 -0.6936 -0.6069 1.570716 
786.7883 39.905 130.900 -0.62293 0.71914 0.859 0.0000 0.17101 9.0000 32.17 0.9576 0.9578 1.0000 -0.1634 -0.0247 0.0092 -0.1695 0.9469 0.0300 -0.0042 0.0117 0.0196 -0.6079 0.7032 0.0040 0.0104 -0.6969 -0.6049 1.575826 
784.2256 39.850 130.684 -0.62062 0.72193 0.856 0.0000 0.17301 9.0000 33.06 0.9588 0.9591 1.0000 -0.1655 -0.0245 0.0092 -0.1716 0.9485 0.0287 -0.0052 0.0115 0.0197 -0.6061 0.7071 0.0040 0.0096 -0.6996 -0.6031 1.580976 
781.2322 39.785 130.412 -0.61678 0.72441 0.851 0.0000 0.17512 9.0000 33.79 0.9594 0.9597 1.0000 -0.1678 -0.0243 0.0097 -0.1737 0.9500 0.0271 -0.0062 0.0120 0.0207 -0.6029 0.7107 0.0037 0.0077 -0.7019 -0.5999 1.587034 
778.6634 39.728 130.180 -0.61466 0.72787 0.843 0.0000 0.17732 9.0000 34.09 0.9611 0.9614 1.0000 -0.1707 -0.0235 0.0101 -0.1754 0.9519 0.0242 -0.0078 0.0117 0.0210 -0.6019 0.7157 0.0028 0.0056 -0.7050 -0.5979 1.592269 
776.0917 39.673 129.900 -0.61101 0.73077 0.843 0.0000 0.17919 9.0000 34.92 0.9619 0.9622 1.0000 -0.1727 -0.0230 0.0109 -0.1774 0.9533 0.0236 -0.0089 0.0121 0.0228 -0.5993 0.7194 0.0018 0.0036 -0.7080 -0.5942 1.597546 
773.0877 39.642 129.558 -0.60638 0.73408 0.830 0.0000 0.18017 9.0000 35.75 0.9628 0.9631 1.0000 -0.1737 -0.0222 0.0112 -0.1786 0.9554 0.0225 -0.0106 0.0130 0.0256 -0.5959 0.7239 0.0011 0.0020 -0.7115 -0.5898 1.603753 
